# Test of "ALS Smoothing" option in the Tools menu.
#
# Al wire Mettler standard
#
#plot Tr,Hf
#labX Temperature (C)
#labY1 Heat Flow (mW)
#
#time	Ts	Tr	Hf
1561.0	651.048	651.017	0.013711999999999946
1568.0	651.165	651.133	0.010380999999999974
1575.0	651.282	651.25	0.011369999999999991
1582.0	651.399	651.367	0.009965000000000002
1589.0	651.515	651.483	0.007911000000000001
1596.0	651.632	651.6	0.0041160000000000085
1603.0	651.749	651.717	0.0029409999999999714
1610.0	651.866	651.833	-0.0013190000000000701
1617.0	651.983	651.95	-0.0024500000000000632
1624.0	652.099	652.067	-0.0015690000000000426
1631.0	652.216	652.183	-0.001419000000000059
1638.0	652.333	652.3	-0.0015330000000000066
1645.0	652.449	652.417	-0.0013720000000000399
1652.0	652.566	652.533	-0.0011849999999999916
1659.0	652.682	652.65	-0.0006249999999999867
1666.0	652.799	652.767	-0.0003490000000000437
1673.0	652.916	652.883	-3.300000000006076e-05
1680.0	653.032	653.0	0.0002989999999999382
1687.0	653.149	653.117	0.0008080000000000309
1694.0	653.266	653.233	0.0014009999999999856
1701.0	653.382	653.35	0.001931000000000016
1708.0	653.499	653.467	0.0022299999999999542
1715.0	653.616	653.583	0.002583000000000002
1722.0	653.732	653.7	0.00313399999999997
1729.0	653.849	653.817	0.003850999999999938
1736.0	653.966	653.933	0.004646999999999957
1743.0	654.082	654.05	0.005369999999999986
1750.0	654.199	654.167	0.005916000000000032
1757.0	654.315	654.283	0.0066709999999999825
1764.0	654.432	654.4	0.007417999999999925
1771.0	654.549	654.517	0.007948999999999984
1778.0	654.665	654.633	0.008588999999999958
1785.0	654.782	654.75	0.009550999999999976
1792.0	654.899	654.867	0.01019099999999995
1799.0	655.015	654.983	0.010703999999999936
1806.0	655.132	655.1	0.011220000000000008
1813.0	655.248	655.217	0.011765999999999943
1820.0	655.365	655.333	0.01205999999999996
1827.0	655.482	655.45	0.012890999999999986
1834.0	655.598	655.567	0.014221999999999957
1841.0	655.715	655.683	0.015371000000000024
1848.0	655.832	655.8	0.016928999999999972
1855.0	655.948	655.917	0.018035000000000023
1862.0	656.065	656.033	0.018464999999999954
1869.0	656.181	656.15	0.018957
1876.0	656.298	656.267	0.019630999999999954
1883.0	656.415	656.383	0.02025599999999994
1890.0	656.531	656.5	0.020621
1897.0	656.648	656.617	0.02175399999999994
1904.0	656.765	656.733	0.022556999999999938
1911.0	656.881	656.85	0.02324499999999996
1918.0	656.998	656.967	0.023944999999999994
1925.0	657.114	657.083	0.02467600000000003
1932.0	657.231	657.2	0.025475000000000025
1939.0	657.348	657.317	0.026216000000000017
1946.0	657.464	657.433	0.027008000000000032
1953.0	657.581	657.55	0.027725
1960.0	657.698	657.667	0.028491999999999962
1967.0	657.814	657.783	0.02921600000000002
1974.0	657.931	657.9	0.029969000000000023
1981.0	658.047	658.017	0.030783999999999923
1988.0	658.164	658.133	0.031598000000000015
1995.0	658.281	658.25	0.032525000000000026
2002.0	658.397	658.367	0.03328399999999998
2009.0	658.514	658.483	0.03396900000000003
2016.0	658.631	658.6	0.03475699999999993
2023.0	658.747	658.717	0.03542499999999993
2030.0	658.864	658.833	0.03609799999999996
2037.0	658.98	658.95	0.036811999999999956
2044.0	659.097	659.067	0.03761899999999996
2051.0	659.214	659.183	0.03831200000000001
2058.0	659.33	659.3	0.03888099999999994
2065.0	659.447	659.417	0.039919999999999956
2072.0	659.564	659.533	0.04055900000000001
2079.0	659.68	659.65	0.041204999999999936
2086.0	659.797	659.767	0.04209799999999997
2093.0	659.914	659.883	0.04299999999999993
2100.0	660.03	660.0	0.04386599999999996
2107.0	660.147	660.117	0.04483899999999996
2114.0	660.263	660.233	0.045731999999999995
2121.0	660.38	660.35	0.04642400000000002
2128.0	660.497	660.467	0.04712799999999995
2135.0	660.613	660.583	0.048157000000000005
2142.0	660.73	660.7	0.049138000000000015
2149.0	660.846	660.817	0.049966999999999984
2156.0	660.963	660.933	0.050887000000000016
2163.0	661.08	661.05	0.051829000000000014
2170.0	661.196	661.167	0.05268699999999993
2177.0	661.313	661.283	0.05377100000000001
2184.0	661.43	661.4	0.05514299999999994
2191.0	661.546	661.517	0.056385999999999936
2198.0	661.663	661.633	0.05798000000000003
2205.0	661.779	661.75	0.060143999999999975
2212.0	661.896	661.867	0.06308899999999995
2219.0	662.012	661.983	0.06845499999999993
2226.0	662.128	662.1	0.08218199999999998
2233.0	662.242	662.217	0.13837699999999997
2240.0	662.35	662.333	0.296515
2247.0	662.453	662.45	0.5381146
2254.0	662.555	662.567	0.809877
2261.0	662.657	662.683	1.094458
2268.0	662.757	662.8	1.3909150000000001
2275.0	662.857	662.917	1.69699
2282.0	662.955	663.033	2.04203
2289.0	663.053	663.15	2.39161
2296.0	663.151	663.267	2.73329
2303.0	663.244	663.383	3.1683600000000003
2310.0	663.341	663.5	3.54334
2317.0	663.436	663.617	3.9328700000000003
2324.0	663.524	663.733	4.46315
2331.0	663.61	663.85	5.040369999999999
2338.0	663.7	663.967	5.5261
2345.0	663.79	664.083	6.01478
2352.0	663.887	664.2	6.38725
2359.0	663.983	664.317	6.766109999999999
2366.0	664.082	664.433	7.082
2373.0	664.191	664.55	7.2349
2380.0	664.303	664.667	7.32156
2387.0	664.442	664.783	6.909689999999999
2394.0	664.615	664.9	5.8586599999999995
2401.0	664.984	665.017	1.2121279999999999
2408.0	665.146	665.133	0.37612199999999996
2415.0	665.273	665.25	0.170985
2422.0	665.393	665.367	0.11451599999999995
2429.0	665.51	665.483	0.09923700000000002
2436.0	665.627	665.6	0.09451500000000002
2443.0	665.744	665.717	0.09328899999999996
2450.0	665.861	665.833	0.09354699999999994
2457.0	665.977	665.95	0.09402900000000003
2464.0	666.094	666.067	0.09468699999999997
2471.0	666.211	666.183	0.09524500000000002
2478.0	666.327	666.3	0.09589499999999995
2485.0	666.444	666.417	0.09679399999999994
2492.0	666.561	666.533	0.09746500000000002
2499.0	666.677	666.65	0.09806899999999996
2506.0	666.794	666.767	0.09858499999999992
2513.0	666.91	666.883	0.09902500000000003
2520.0	667.027	667.0	0.099553
2527.0	667.144	667.117	0.10030899999999998
2534.0	667.26	667.233	0.10099399999999997
2541.0	667.377	667.35	0.10146499999999997
2548.0	667.494	667.467	0.10224999999999995
2555.0	667.61	667.583	0.10269499999999998
2562.0	667.727	667.7	0.10326999999999997
2569.0	667.844	667.817	0.10402499999999998
2576.0	667.96	667.933	0.10449699999999995
2583.0	668.077	668.05	0.10494499999999995
2590.0	668.193	668.167	0.10543599999999997
2597.0	668.31	668.283	0.10586899999999999
2604.0	668.427	668.4	0.10650499999999996
2611.0	668.543	668.517	0.106902
2618.0	668.66	668.633	0.10019899999999998
2625.0	668.777	668.75	0.10585599999999995
2632.0	668.893	668.867	0.10919099999999998
2639.0	669.01	668.983	0.11036399999999996
2646.0	669.126	669.1	0.111012
2653.0	669.243	669.217	0.11181599999999997
2660.0	669.36	669.333	0.11237799999999998
2667.0	669.476	669.45	0.11299799999999999
2674.0	669.593	669.567	0.113699
2681.0	669.71	669.683	0.11436599999999997
2688.0	669.826	669.8	0.115207
2695.0	669.943	669.917	0.11596099999999998
2702.0	670.06	670.033	0.11650499999999997
2709.0	670.176	670.15	0.11713199999999996
2716.0	670.293	670.267	0.11777499999999996
2723.0	670.409	670.383	0.11849099999999996
2730.0	670.526	670.5	0.11929599999999996
2737.0	670.643	670.617	0.11992199999999997
2744.0	670.759	670.733	0.120419
2751.0	670.876	670.85	0.12110099999999996
2758.0	670.993	670.967	0.12164599999999998
2765.0	671.109	671.083	0.12212599999999996
2772.0	671.226	671.2	0.12265299999999996
2779.0	671.342	671.317	0.12338299999999996
2786.0	671.459	671.433	0.12401399999999996
2793.0	671.576	671.55	0.12462199999999996
2800.0	671.692	671.667	0.12531099999999995
2807.0	671.809	671.783	0.12589399999999995
2814.0	671.926	671.9	0.12653899999999996
2821.0	672.042	672.017	0.12722099999999997
2828.0	672.159	672.133	0.12778599999999996
2835.0	672.276	672.25	0.12889899999999999
2842.0	672.392	672.367	0.12929199999999996
2849.0	672.509	672.483	0.129621
2856.0	672.625	672.6	0.129988
2863.0	672.742	672.717	0.13060099999999997
2870.0	672.859	672.833	0.13089799999999996
2877.0	672.975	672.95	0.131152
2884.0	673.092	673.067	0.13187099999999996
2891.0	673.209	673.183	0.13244999999999996
2898.0	673.325	673.3	0.13304499999999997
2905.0	673.442	673.417	0.13383899999999999
2912.0	673.559	673.533	0.13455
2919.0	673.675	673.65	0.13523399999999997
2926.0	673.792	673.767	0.13592299999999996
2933.0	673.909	673.883	0.13637099999999996
2940.0	674.025	674.0	0.13705
2947.0	674.142	674.117	0.137604
2954.0	674.258	674.233	0.138239
2961.0	674.375	674.35	0.13861599999999996
2968.0	674.492	674.467	0.13903899999999997
2975.0	674.608	674.583	0.139519
2982.0	674.725	674.7	0.140295
2989.0	674.841	674.817	0.141312
2996.0	674.957	674.933	0.16508599999999996
3003.0	674.976	674.95	0.122811
