# XRD pattern of silicon standard
#
#2theta	Intensity
20	140.365
20.03	110.101
20.06	108.636
20.09	99.0712
20.12	105.706
20.15	110.542
20.18	132.476
20.21	133.712
20.24	115.147
20.27	110.082
20.3	108.618
20.33	135.952
20.36	120.987
20.39	125.822
20.42	117.157
20.45	127.393
20.48	121.428
20.51	123.562
20.54	114.898
20.57	138.632
20.6	110.168
20.63	103.303
20.66	112.639
20.69	102.173
20.72	134.909
20.75	109.144
20.78	108.578
20.81	112.514
20.84	108.349
20.87	103.284
20.9	110.82
20.93	129.154
20.96	138.489
20.99	113.625
21.02	96.8596
21.05	116.995
21.08	114.63
21.11	114.966
21.14	109
21.17	121.036
21.2	113.27
21.23	95.6053
21.26	110.341
21.29	121.475
21.32	106.51
21.35	114.046
21.38	119.78
21.41	113.816
21.44	133.051
21.47	103.685
21.5	131.022
21.53	125.056
21.56	113.692
21.59	115.827
21.62	116.163
21.65	119.197
21.68	124.031
21.71	119.868
21.74	109.402
21.77	116.036
21.8	104.672
21.83	124.807
21.86	124.243
21.89	99.3776
21.92	122.212
21.95	118.048
21.98	130.083
22.01	125.019
22.04	107.353
22.07	109.489
22.1	113.423
22.13	114.658
22.16	114.994
22.19	106.328
22.22	107.565
22.25	96.1988
22.28	121.733
22.31	121.169
22.34	108.004
22.37	93.0394
22.4	123.075
22.43	118.909
22.46	109.345
22.49	142.079
22.52	108.216
22.55	96.85
22.58	107.084
22.61	113.721
22.64	116.755
22.67	118.891
22.7	121.925
22.73	101.56
22.76	116.296
22.79	109.43
22.82	114.267
22.85	104.701
22.88	98.7362
22.91	103.572
22.94	131.806
22.97	115.942
23	101.877
23.03	131.913
23.06	97.1469
23.09	103.781
23.12	138.317
23.15	128.752
23.18	104.788
23.21	112.322
23.24	117.157
23.27	130.093
23.3	119.627
23.33	115.462
23.36	101.398
23.39	110.733
23.42	107.469
23.45	121.303
23.48	118.939
23.51	106.673
23.54	115.109
23.57	121.744
23.6	104.978
23.63	109.815
23.66	104.749
23.69	109.583
23.72	100.019
23.75	87.7543
23.78	108.79
23.81	128.924
23.84	93.2596
23.87	116.095
23.9	114.63
23.93	107.766
23.96	117.1
23.99	120.026
24.02	93.2539
24.05	90.7807
24.08	116.208
24.11	103.834
24.14	118.462
24.17	103.388
24.2	109.015
24.23	136.243
24.26	104.97
24.29	110.596
24.32	118.922
24.35	114.65
24.38	129.277
24.41	96.2038
24.44	106.33
24.47	111.058
24.5	104.084
24.53	129.511
24.56	121.639
24.59	98.4654
24.62	113.992
24.65	123.219
24.68	123.447
24.71	112.873
24.74	108.6
24.77	104.328
24.8	121.654
24.83	115.581
24.86	122.107
24.89	128.635
24.92	119.862
24.95	106.588
24.98	116.716
25.01	100.743
25.04	123.469
25.07	115.596
25.1	121.224
25.13	117.85
25.16	121.676
25.19	113.805
25.22	118.531
25.25	108.858
25.28	112.684
25.31	126.411
25.34	104.138
25.37	126.865
25.4	108.193
25.43	112.919
25.46	127.546
25.49	116.072
25.52	110.9
25.55	119.227
25.58	123.953
25.61	116.082
25.64	133.408
25.67	120.135
25.7	110.461
25.73	119.688
25.76	117.216
25.79	104.842
25.82	152.77
25.85	116.996
25.88	110.023
25.91	109.35
25.94	107.778
25.97	108.004
26	121.731
26.03	111.157
26.06	108.685
26.09	107.112
26.12	106.438
26.15	119.264
26.18	106.892
26.21	112.519
26.24	111.846
26.27	111.173
26.3	115.9
26.33	117.832
26.36	117.065
26.39	107.297
26.42	102.031
26.45	109.363
26.48	109.496
26.51	111.428
26.54	121.46
26.57	135.994
26.6	121.726
26.63	144.36
26.66	123.792
26.69	135.625
26.72	128.557
26.75	123.291
26.78	133.322
26.81	150.556
26.84	127.288
26.87	138.22
26.9	123.953
26.93	124.986
26.96	131.419
26.99	141.451
27.02	118.183
27.05	115.617
27.08	125.649
27.11	123.982
27.14	125.014
27.17	132.346
27.2	137.88
27.23	124.511
27.26	129.145
27.29	125.677
27.32	115.911
27.35	134.042
27.38	125.176
27.41	110.908
27.44	129.042
27.47	135.474
27.5	113.106
27.53	141.139
27.56	138.571
27.59	140.505
27.62	141.536
27.65	145.27
27.68	143.602
27.71	141.934
27.74	157.368
27.77	167.399
27.8	154.033
27.83	162.265
27.86	173.197
27.89	181.43
27.92	176.163
27.95	178.096
27.98	198.928
28.01	212.562
28.04	191.994
28.07	244.327
28.1	256.159
28.13	285.093
28.16	323.024
28.19	436.558
28.22	480.79
28.25	606.022
28.28	708.755
28.31	782.688
28.34	1043.82
28.37	1791.85
28.4	4333.59
28.43	10614
28.46	10912.8
28.49	6561.49
28.52	6692.12
28.55	3342.45
28.58	1340.08
28.61	874.014
28.64	735.547
28.67	561.979
28.7	428.912
28.73	359.745
28.76	277.078
28.79	243.01
28.82	252.144
28.85	241.476
28.88	195.709
28.91	200.341
28.94	177.075
28.97	169.106
29	170.138
29.03	158.572
29.06	155.104
29.09	137.236
29.12	150.87
29.15	150.102
29.18	155.635
29.21	143.167
29.24	142.399
29.27	115.532
29.3	130.065
29.33	138.298
29.36	139.33
29.39	134.964
29.42	112.596
29.45	138.829
29.48	125.461
29.51	122.894
29.54	127.526
29.57	133.96
29.6	126.892
29.63	121.625
29.66	141.558
29.69	129.989
29.72	123.823
29.75	114.055
29.78	119.589
29.81	114.32
29.84	109.053
29.87	118.186
29.9	122.818
29.93	123.85
29.96	119.483
29.99	115.115
30.02	111.649
30.05	116.281
30.08	114.614
30.11	119.246
30.14	134.68
30.17	123.112
30.2	105.245
30.23	124.278
30.26	119.011
30.29	106.543
30.32	114.775
30.35	132.909
30.38	121.341
30.41	115.174
30.44	120.706
30.47	113.639
30.5	113.772
30.53	118.404
30.56	115.837
30.59	114.169
30.62	99.9021
30.65	118.034
30.68	123.566
30.71	112
30.74	109.32
30.77	117.44
30.8	110.26
30.83	125.579
30.86	112.999
30.89	109.42
30.92	123.839
30.95	114.859
30.98	118.478
31.01	121.2
31.04	107.719
31.07	122.138
31.1	119.458
31.13	121.279
31.16	113.199
31.19	103.318
31.22	107.837
31.25	112.358
31.28	104.278
31.31	114.197
31.34	121.417
31.37	110.636
31.4	105.257
31.43	105.277
31.46	110.697
31.49	114.317
31.52	122.437
31.55	110.757
31.58	115.276
31.61	131.495
31.64	121.617
31.67	127.936
31.7	128.856
31.73	100.975
31.76	114.496
31.79	119.916
31.82	106.435
31.85	113.656
31.88	115.475
31.91	113.695
31.94	123.614
31.97	111.036
32	101.155
32.03	113.775
32.06	109.294
32.09	100.315
32.12	119.234
32.15	112.954
32.18	118.373
32.21	126.494
32.24	122.014
32.27	113.934
32.3	114.853
32.33	113.974
32.36	109.493
32.39	108.613
32.42	115.833
32.45	126.654
32.48	106.873
32.51	119.493
32.54	128.512
32.57	106.033
32.6	115.053
32.63	124.972
32.66	115.091
32.69	101.613
32.72	115.132
32.75	118.752
32.78	125.071
32.81	106.192
32.84	117.911
32.87	124.231
32.9	110.75
32.93	118.871
32.96	124.291
32.99	110.81
33.02	111.73
33.05	115.35
33.08	116.27
33.11	105.49
33.14	119.01
33.17	107.331
33.2	116.35
33.23	119.97
33.26	106.489
33.29	115.51
33.32	120.93
33.35	107.449
33.38	123.668
33.41	104.79
33.44	109.309
33.47	128.228
33.5	116.548
33.53	104.869
33.56	111.189
33.59	115.708
33.62	114.828
33.65	123.849
33.68	109.468
33.71	114.887
33.74	112.207
33.77	109.528
33.8	116.748
33.83	124.867
33.86	105.987
33.89	105.108
33.92	119.527
33.95	118.647
33.98	106.066
34.01	121.387
34.04	125.007
34.07	110.626
34.1	109.745
34.13	115.165
34.16	107.086
34.19	108.006
34.22	118.827
34.25	105.346
34.28	112.565
34.31	127.885
34.34	127.904
34.37	117.125
34.4	124.345
34.43	118.964
34.46	128.884
34.49	114.505
34.52	119.025
34.55	128.944
34.58	106.464
34.61	123.584
34.64	110.104
34.67	120.923
34.7	115.543
34.73	112.864
34.76	107.483
34.79	103.903
34.82	117.422
34.85	108.444
34.88	112.063
34.91	117.483
34.94	121.103
34.97	110.323
35	113.042
35.03	97.7621
35.06	107.681
35.09	116.703
35.12	129.322
35.15	125.742
35.18	111.361
35.21	126.68
35.24	113.202
35.27	116.821
35.3	104.24
35.33	133.061
35.36	107.881
35.39	101.6
35.42	115.12
35.45	113.341
35.48	110.661
35.51	108.88
35.54	110.7
35.57	111.62
35.6	125.14
35.63	106.26
35.66	113.479
35.69	113.5
35.72	116.22
35.75	109.039
35.78	120.758
35.81	118.079
35.84	125.299
35.87	113.618
35.9	101.938
35.93	117.257
35.96	118.178
35.99	103.798
36.02	111.017
36.05	125.439
36.08	126.358
36.11	108.377
36.14	109.297
36.17	113.818
36.2	121.038
36.23	129.157
36.26	107.577
36.29	120.196
36.32	117.517
36.35	111.237
36.38	121.157
36.41	120.277
36.44	111.297
36.47	111.316
36.5	112.236
36.53	100.556
36.56	104.176
36.59	106.895
36.62	112.315
36.65	117.734
36.68	112.356
36.71	105.175
36.74	106.994
36.77	112.416
36.8	113.335
36.83	117.855
36.86	113.374
36.89	116.995
36.92	105.315
36.95	121.534
36.98	118.853
37.01	118.873
37.04	105.394
37.07	113.513
37.1	104.533
37.13	121.654
37.16	107.274
37.19	107.293
37.22	117.212
37.25	127.133
37.28	114.553
37.31	109.172
37.34	116.392
37.37	131.712
37.4	121.833
37.43	103.852
37.46	125.473
37.49	121.892
37.52	121.912
37.55	122.832
37.58	116.551
37.61	123.772
37.64	114.792
37.67	112.111
37.7	119.331
37.73	113.952
37.76	116.671
37.79	122.091
37.82	114.91
37.85	109.531
37.88	108.65
37.91	114.07
37.94	108.69
37.97	112.31
38	118.63
38.03	108.75
38.06	112.369
38.09	123.189
38.12	118.709
38.15	116.929
38.18	119.65
38.21	114.269
38.24	115.189
38.27	112.508
38.3	110.728
38.33	117.949
38.36	106.269
38.39	109.888
38.42	127.907
38.45	118.027
38.48	113.548
38.51	109.067
38.54	99.1876
38.57	119.908
38.6	104.627
38.63	100.147
38.66	103.767
38.69	113.688
38.72	114.607
38.75	113.726
38.78	119.146
38.81	110.167
38.84	109.286
38.87	115.606
38.9	112.925
38.93	120.147
38.96	123.766
38.99	111.185
39.02	113.005
39.05	113.026
39.08	119.346
39.11	113.065
39.14	115.784
39.17	120.304
39.2	108.625
39.23	111.345
39.26	106.864
39.29	113.185
39.32	115.904
39.35	115.024
39.38	115.043
39.41	115.964
39.44	124.084
39.47	118.703
39.5	118.723
39.53	123.243
39.56	110.663
39.59	118.783
39.62	104.403
39.65	120.623
39.68	122.443
39.71	114.363
39.74	107.182
39.77	109.903
39.8	114.422
39.83	109.042
39.86	122.561
39.89	115.381
39.92	113.602
39.95	114.522
39.98	116.343
40.01	119.062
40.04	118.181
40.07	118.201
40.1	104.721
40.13	120.941
40.16	107.461
40.19	116.481
40.22	106.6
40.25	103.021
40.28	114.74
40.31	120.16
40.34	123.781
40.37	116.6
40.4	121.12
40.43	115.739
40.46	127.459
40.49	119.38
40.52	134.7
40.55	120.319
40.58	114.939
40.61	114.06
40.64	103.279
40.67	109.599
40.7	114.118
40.73	109.639
40.76	120.458
40.79	116.878
40.82	123.197
40.85	115.118
40.88	124.138
40.91	121.458
40.94	100.777
40.97	110.698
41	117.017
41.03	100.837
41.06	116.158
41.09	116.178
41.12	124.297
41.15	116.216
41.18	109.936
41.21	117.157
41.24	106.377
41.27	114.496
41.3	119.016
41.33	103.737
41.36	123.556
41.39	123.576
41.42	98.3956
41.45	116.416
41.48	123.636
41.51	120.955
41.54	111.975
41.57	123.695
41.6	129.115
41.63	116.534
41.66	106.654
41.69	112.975
41.72	123.794
41.75	122.014
41.78	115.735
41.81	117.555
41.84	110.374
41.87	104.094
41.9	115.813
41.93	120.334
41.96	121.254
41.99	114.973
42.02	120.392
42.05	107.814
42.08	106.933
42.11	126.752
42.14	108.772
42.17	120.493
42.2	112.413
42.23	130.432
42.26	125.051
42.29	117.873
42.32	110.692
42.35	117.011
42.38	121.531
42.41	125.152
42.44	116.172
42.47	106.291
42.5	125.212
42.53	126.132
42.56	125.251
42.59	112.671
42.62	124.39
42.65	116.311
42.68	117.231
42.71	108.25
42.74	115.47
42.77	111.891
42.8	111.01
42.83	111.93
42.86	116.451
42.89	120.07
42.92	121.889
42.95	116.509
42.98	109.328
43.01	100.35
43.04	111.169
43.07	118.388
43.1	124.708
43.13	127.429
43.16	104.949
43.19	117.568
43.22	109.488
43.25	113.108
43.28	113.128
43.31	123.047
43.34	120.367
43.37	107.788
43.4	124.907
43.43	111.427
43.46	118.647
43.49	133.968
43.52	115.987
43.55	107.007
43.58	116.028
43.61	112.447
43.64	108.867
43.67	109.786
43.7	117.006
43.73	117.026
43.76	117.946
43.79	107.166
43.82	113.485
43.85	123.406
43.88	123.425
43.91	113.545
43.94	116.266
43.97	103.685
44	116.305
44.03	128.025
44.06	107.344
44.09	121.765
44.12	103.784
44.15	109.204
44.18	121.824
44.21	120.945
44.24	118.264
44.27	113.784
44.3	116.505
44.33	122.824
44.36	110.243
44.39	117.463
44.42	118.382
44.45	113.004
44.48	113.923
44.51	114.843
44.54	116.662
44.57	114.883
44.6	127.502
44.63	122.122
44.66	118.543
44.69	112.262
44.72	109.582
44.75	103.301
44.78	125.821
44.81	127.642
44.84	116.862
44.87	114.181
44.9	106.102
44.93	109.721
44.96	116.941
44.99	118.761
45.02	108.88
45.05	115.201
45.08	109.82
45.11	110.74
45.14	108.961
45.17	115.28
45.2	108.1
45.23	121.632
45.26	112.665
45.29	119.898
45.32	130.729
45.35	103.761
45.38	106.493
45.41	119.125
45.44	105.658
45.47	114.69
45.5	108.422
45.53	117.454
45.56	122.887
45.59	106.719
45.62	131.051
45.65	127.483
45.68	115.816
45.71	122.148
45.74	120.381
45.77	123.112
45.8	126.743
45.83	119.577
45.86	138.51
45.89	126.841
45.92	123.273
45.95	132.305
45.98	128.737
46.01	131.47
46.04	127.903
46.07	128.834
46.1	125.266
46.13	106.399
46.16	119.03
46.19	125.364
46.22	131.695
46.25	122.728
46.28	138.06
46.31	138.993
46.34	140.824
46.37	154.356
46.4	131.888
46.43	131.922
46.46	158.953
46.49	139.186
46.52	139.218
46.55	139.249
46.58	141.082
46.61	143.815
46.64	146.547
46.67	142.978
46.7	145.711
46.73	155.642
46.76	174.576
46.79	165.608
46.82	174.64
46.85	166.572
46.88	183.704
46.91	180.136
46.94	179.269
46.97	218
47	216.233
47.03	296.365
47.06	354.898
47.09	418.829
47.12	420.661
47.15	495.394
47.18	664.627
47.21	857.259
47.24	1492.69
47.27	3419.62
47.3	6118.75
47.33	4840.78
47.36	2295.62
47.39	2191.26
47.42	3063.39
47.45	3017.51
47.48	1398.44
47.51	709.981
47.54	556.114
47.57	412.145
47.6	338.377
47.63	301.51
47.66	266.442
47.69	237.674
47.72	197.206
47.75	192.739
47.78	169.371
47.81	160.404
47.84	158.635
47.87	166.767
47.9	174.899
47.93	148.833
47.96	158.764
47.99	156.997
48.02	143.529
48.05	154.36
48.08	135.493
48.11	142.726
48.14	135.558
48.17	134.689
48.2	145.522
48.23	134.754
48.26	141.087
48.29	130.32
48.32	145.651
48.35	123.183
48.38	132.216
48.41	122.347
48.44	123.28
48.47	121.511
48.5	125.144
48.53	122.476
48.56	127.909
48.59	126.141
48.62	127.972
48.65	131.605
48.68	127.138
48.71	119.07
48.74	122.703
48.77	122.734
48.8	110.166
48.83	134.498
48.86	108.43
48.89	112.963
48.92	121.994
48.95	121.127
48.98	112.159
49.01	112.192
49.04	117.623
49.07	118.556
49.1	119.488
49.13	118.621
49.16	118.653
49.19	107.886
49.22	110.617
49.25	119.65
49.28	124.181
49.31	112.514
49.34	127.846
49.37	109.879
49.4	133.31
49.43	118.944
49.46	117.175
49.49	110.906
49.52	108.239
49.55	115.471
49.58	106.504
49.61	117.337
49.64	123.668
49.67	124.6
49.7	119.233
49.73	113.864
49.76	120.197
49.79	113.029
49.82	124.762
49.85	115.793
49.88	113.127
49.91	120.358
49.94	108.691
49.97	115.922
50	120.456
50.03	113.287
50.06	116.02
50.09	110.651
50.12	107.084
50.15	122.416
50.18	109.847
50.21	117.981
50.24	109.012
50.27	110.845
50.3	123.476
50.33	116.31
50.36	110.041
50.39	116.374
50.42	113.706
50.45	123.638
50.48	115.57
50.51	119.203
50.54	115.635
50.57	115.667
50.6	111.199
50.63	116.632
50.66	113.964
50.69	121.195
50.72	107.728
50.75	112.261
50.78	121.292
50.81	109.625
50.84	100.657
50.87	112.39
50.9	112.422
50.93	112.453
50.96	110.686
50.99	118.817
51.02	117.05
51.05	111.682
51.08	110.815
51.11	117.148
51.14	114.48
51.17	110.911
51.2	117.244
51.23	107.375
51.26	111.008
51.29	114.64
51.32	108.373
51.35	112.005
51.38	115.637
51.41	119.269
51.44	121.1
51.47	117.534
51.5	111.267
51.53	110.398
51.56	111.329
51.59	108.663
51.62	110.494
51.65	116.827
51.68	111.458
51.71	108.792
51.74	111.523
51.77	117.856
51.8	112.488
51.83	113.421
51.86	112.552
51.89	113.485
51.92	110.816
51.95	111.75
51.98	112.681
52.01	112.714
52.04	104.645
52.07	109.178
52.1	117.31
52.13	111.943
52.16	108.375
52.19	121.006
52.22	121.039
52.25	121.972
52.28	107.603
52.31	113.935
52.34	106.768
52.37	104.1
52.4	109.532
52.43	118.565
52.46	111.397
52.49	115.928
52.52	105.161
52.55	111.493
52.58	116.926
52.61	116.058
52.64	116.091
52.67	118.822
52.7	118.855
52.73	112.587
52.76	118.918
52.79	104.551
52.82	122.584
52.85	105.516
52.88	110.048
52.91	111.88
52.94	109.213
52.97	111.945
53	110.176
53.03	113.809
53.06	118.341
53.09	112.074
53.12	112.105
53.15	110.338
53.18	109.47
53.21	108.602
53.24	114.934
53.27	123.967
53.3	123.998
53.33	114.132
53.36	109.663
53.39	123.196
53.42	113.328
53.45	108.861
53.48	117.892
53.51	118.824
53.54	117.056
53.57	104.489
53.6	118.921
53.63	117.154
53.66	104.585
53.69	117.217
53.72	109.15
53.75	112.781
53.78	119.114
53.81	115.546
53.84	118.279
53.87	112.911
53.9	108.444
53.93	109.375
53.96	117.508
53.99	113.94
54.02	117.572
54.05	113.104
54.08	118.537
54.11	115.868
54.14	131.202
54.17	109.633
54.2	115.066
54.23	115.998
54.26	117.829
54.29	116.062
54.32	117.895
54.35	116.127
54.38	117.959
54.41	129.691
54.44	110.824
54.47	118.055
54.5	127.089
54.53	119.02
54.56	120.851
54.59	115.484
54.62	118.216
54.65	116.449
54.68	118.282
54.71	124.614
54.74	115.645
54.77	118.378
54.8	123.81
54.83	118.442
54.86	109.474
54.89	118.507
54.92	118.538
54.95	125.772
54.98	128.503
55.01	130.334
55.04	128.567
55.07	119.6
55.1	116.932
55.13	129.565
55.16	116.996
55.19	127.828
55.22	128.761
55.25	117.094
55.28	128.826
55.31	138.757
55.34	127.99
55.37	132.522
55.4	128.055
55.43	144.286
55.46	129.019
55.49	142.55
55.52	130.883
55.55	130.915
55.58	134.547
55.61	134.579
55.64	142.712
55.67	160.744
55.7	142.777
55.73	156.308
55.76	161.74
55.79	187.873
55.82	201.406
55.85	221.237
55.88	238.369
55.91	256.402
55.94	270.834
55.97	333.866
56	389.699
56.03	608.431
56.06	945.961
56.09	1912.6
56.12	3224.83
56.15	2588.56
56.18	1328.6
56.21	957.823
56.24	1136.96
56.27	1763.38
56.3	1542.93
56.33	832.852
56.36	430.585
56.39	325.318
56.42	264.149
56.45	248.882
56.48	221.014
56.51	176.046
56.54	167.078
56.57	158.112
56.6	144.643
56.63	151.875
56.66	141.108
56.69	145.639
56.72	148.372
56.75	144.805
56.78	143.036
56.81	131.368
56.84	126.001
56.87	130.532
56.9	125.166
56.93	131.497
56.96	131.53
56.99	132.462
57.02	127.095
57.05	113.626
57.08	131.657
57.11	117.291
57.14	120.923
57.17	125.455
57.2	137.188
57.23	121.919
57.26	122.851
57.29	118.384
57.32	116.617
57.35	118.449
57.38	119.38
57.41	128.413
57.44	122.144
57.47	107.778
57.5	115.011
57.53	112.342
57.56	123.173
57.59	116.906
57.62	117.838
57.65	117.871
57.68	118.803
57.71	113.435
57.74	114.367
57.77	114.4
57.8	118.931
57.83	113.565
57.86	105.496
57.89	112.729
57.92	115.46
57.95	112.793
57.98	115.525
58.01	118.257
58.04	121.889
58.07	122.822
58.1	112.954
58.13	111.185
58.16	111.219
58.19	117.55
58.22	113.983
58.25	128.416
58.28	115.847
58.31	110.479
58.34	114.112
58.37	106.043
58.4	113.276
58.43	108.808
58.46	115.141
58.49	117.873
58.52	119.706
58.55	126.937
58.58	117.969
58.61	118.901
58.64	113.534
58.67	109.966
58.7	114.498
58.73	116.331
58.76	109.162
58.79	119.095
58.82	111.926
58.85	120.959
58.88	115.591
58.91	106.624
58.94	115.655
58.97	106.689
59	122.92
59.03	110.353
59.06	111.284
59.09	112.218
59.12	107.749
59.15	116.78
59.18	118.614
59.21	109.647
59.24	114.178
59.27	119.611
59.3	116.042
59.33	116.974
59.36	110.707
59.39	111.638
59.42	114.371
59.45	115.303
59.48	115.336
59.51	114.468
59.54	117.201
59.57	112.732
59.6	117.265
59.63	114.596
59.66	117.329
59.69	117.361
59.72	119.194
59.75	112.025
59.78	112.059
59.81	119.29
59.84	108.523
59.87	108.555
59.9	114.887
59.93	113.119
59.96	115.852
59.99	114.983
60.02	115.917
60.05	110.548
60.08	116.88
60.11	122.312
60.14	111.544
60.17	113.377
60.2	110.708
60.23	112.542
60.26	113.473
60.29	120.706
60.32	117.139
60.35	110.87
60.38	110.902
60.41	108.235
60.44	103.767
60.47	118.2
60.5	117.331
60.53	112.864
60.56	122.796
60.59	108.428
60.62	115.66
60.65	113.893
60.68	109.424
60.71	113.058
60.74	107.689
60.77	109.522
60.8	116.754
60.83	103.286
60.86	112.318
60.89	118.651
60.92	107.882
60.95	112.414
60.98	109.747
61.01	108.879
61.04	111.612
61.07	112.543
61.1	108.976
61.13	112.608
61.16	117.141
61.19	118.072
61.22	109.105
61.25	112.737
61.28	112.769
61.31	110.101
61.34	112.834
61.37	113.766
61.4	120.997
61.43	104.83
61.46	108.463
61.49	109.394
61.52	109.426
61.55	105.859
61.58	107.69
61.61	122.123
61.64	110.455
61.67	116.788
61.7	112.32
61.73	117.752
61.76	116.884
61.79	117.817
61.82	110.649
61.85	114.281
61.88	115.213
61.91	112.546
61.94	109.877
61.97	114.411
62	117.142
62.03	115.375
62.06	117.207
62.09	109.139
62.12	110.971
62.15	117.303
62.18	113.736
62.21	120.069
62.24	113.8
62.27	111.1
62.3	117.4
62.33	111.1
62.36	118.3
62.39	110.2
62.42	108.4
62.45	106.6
62.48	114.7
62.51	112.9
62.54	114.7
62.57	109.3
62.6	112.9
62.63	112.9
62.66	109.3
62.69	106.6
62.72	113.8
62.75	110.2
62.78	115.6
62.81	119.2
62.84	121.9
62.87	113.8
62.9	114.7
62.93	115.6
62.96	120.1
62.99	112.9
63.02	111.1
63.05	109.3
63.08	112.9
63.11	117.4
63.14	114.7
63.17	120.1
63.2	119.2
63.23	114.7
63.26	109.3
63.29	111.1
63.32	118.3
63.35	106.6
63.38	119.2
63.41	114.7
63.44	115.6
63.47	120.1
63.5	108.4
63.53	114.7
63.56	121.9
63.59	111.1
63.62	119.2
63.65	110.2
63.68	108.4
63.71	115.6
63.74	110.2
63.77	115.6
63.8	112.9
63.83	119.2
63.86	123.7
63.89	112.9
63.92	105.7
63.95	110.2
63.98	111.1
64.01	117.4
64.04	119.2
64.07	111.1
64.1	117.4
64.13	121.9
64.16	118.3
64.19	110.2
64.22	118.3
64.25	117.4
64.28	113.8
64.31	111.1
64.34	110.2
64.37	114.7
64.4	111.1
64.43	111.1
64.46	111.1
64.49	108.4
64.52	113.8
64.55	109.3
64.58	114.7
64.61	112.9
64.64	111.1
64.67	113.8
64.7	110.2
64.73	124.6
64.76	113.8
64.79	111.1
64.82	117.4
64.85	109.3
64.88	112.9
64.91	106.6
64.94	112.9
64.97	112.9
65	117.4
65.03	119.2
65.06	105.7
65.09	109.3
65.12	112.9
65.15	111.1
65.18	111.1
65.21	112.9
65.24	113.8
65.27	115.6
65.3	120.1
65.33	119.2
65.36	103.9
65.39	119.2
65.42	121.9
65.45	114.7
65.48	109.3
65.51	113.8
65.54	114.7
65.57	108.4
65.6	114.7
65.63	111.1
65.66	111.1
65.69	113.8
65.72	110.2
65.75	115.6
65.78	113.8
65.81	114.7
65.84	113.8
65.87	110.2
65.9	122.8
65.93	108.4
65.96	110.2
65.99	110.2
66.02	104.8
66.05	121.9
66.08	111.1
66.11	120.1
66.14	111.1
66.17	109.3
66.2	108.4
66.23	110.2
66.26	110.2
66.29	110.2
66.32	110.2
66.35	120.1
66.38	115.6
66.41	105.7
66.44	119.2
66.47	114.7
66.5	112.9
66.53	106.6
66.56	119.2
66.59	113.8
66.62	101.2
66.65	115.6
66.68	118.3
66.71	105.7
66.74	104.8
66.77	112.9
66.8	111.1
66.83	115.6
66.86	111.1
66.89	112.9
66.92	106.6
66.95	111.1
66.98	114.7
67.01	112.9
67.04	118.3
67.07	112.9
67.1	115.6
67.13	120.1
67.16	117.4
67.19	110.2
67.22	112.9
67.25	118.3
67.28	120.1
67.31	120.1
67.34	112.9
67.37	110.2
67.4	113.8
67.43	112.9
67.46	113.8
67.49	105.7
67.52	114.7
67.55	117.4
67.58	117.4
67.61	121.9
67.64	119.2
67.67	113.8
67.7	122.8
67.73	110.2
67.76	117.4
67.79	115.6
67.82	120.1
67.85	121.9
67.88	118.3
67.91	110.2
67.94	112.9
67.97	117.4
68	127.3
68.03	120.1
68.06	113.8
68.09	110.2
68.12	117.4
68.15	115.6
68.18	124.6
68.21	119.2
68.24	115.6
68.27	113.8
68.3	112.9
68.33	111.1
68.36	130.9
68.39	130.9
68.42	118.3
68.45	115.6
68.48	117.4
68.51	121.9
68.54	110.2
68.57	120.1
68.6	120.1
68.63	126.4
68.66	141.7
68.69	122.8
68.72	130.9
68.75	128.2
68.78	139.9
68.81	148.9
68.84	146.2
68.87	140.8
68.9	158.8
68.93	156.1
68.96	169.6
68.99	218.2
69.02	265.9
69.05	276.7
69.08	428.8
69.11	668.2
69.14	730.3
69.17	532.3
69.2	347.8
69.23	322.6
69.26	303.7
69.29	375.7
69.32	430.6
69.35	437.8
69.38	295.6
69.41	220.9
69.44	192.1
69.47	159.7
69.5	155.2
69.53	145.3
69.56	130.9
69.59	146.2
69.62	130.9
69.65	126.4
69.68	128.2
69.71	113.8
69.74	115.6
69.77	129.1
69.8	118.3
69.83	120.1
69.86	120.1
69.89	124.6
69.92	117.4
69.95	118.3
69.98	119.2
70.01	123.7
70.04	111.1
70.07	121.9
70.1	114.7
70.13	119.2
70.16	122.8
70.19	113.8
70.22	119.2
70.25	123.7
70.28	119.2
70.31	122.8
70.34	114.7
70.37	118.3
70.4	114.7
70.43	105.7
70.46	115.6
70.49	113.8
70.52	113.8
70.55	120.1
70.58	123.7
70.61	123.7
70.64	118.3
70.67	114.7
70.7	111.1
70.73	117.4
70.76	113.8
70.79	115.6
70.82	121.9
70.85	115.6
70.88	115.6
70.91	113.8
70.94	112.9
70.97	112.9
71	118.3
71.03	112.9
71.06	118.3
71.09	123.7
71.12	118.3
71.15	111.1
71.18	112.9
71.21	115.6
71.24	117.4
71.27	117.4
71.3	117.4
71.33	115.6
71.36	112.9
71.39	113.8
71.42	108.4
71.45	113.8
71.48	123.7
71.51	108.4
71.54	112.9
71.57	113.8
71.6	112.9
71.63	112.9
71.66	113.8
71.69	104.8
71.72	113.8
71.75	112.9
71.78	110.2
71.81	113.8
71.84	118.3
71.87	112.9
71.9	123.7
71.93	114.7
71.96	112.9
71.99	106.6
72.02	109.3
72.05	105.7
72.08	114.7
72.11	113.8
72.14	118.3
72.17	109.3
72.2	117.4
72.23	113.8
72.26	114.7
72.29	113.8
72.32	122.8
72.35	111.1
72.38	111.1
72.41	113.8
72.44	114.7
72.47	109.3
72.5	114.7
72.53	114.7
72.56	121.9
72.59	115.6
72.62	115.6
72.65	112.9
72.68	112.9
72.71	110.2
72.74	111.1
72.77	114.7
72.8	114.7
72.83	109.3
72.86	108.4
72.89	106.6
72.92	106.6
72.95	121.9
72.98	112.9
73.01	114.7
73.04	111.1
73.07	114.7
73.1	106.6
73.13	105.7
73.16	114.7
73.19	110.2
73.22	110.2
73.25	120.1
73.28	123.7
73.31	109.3
73.34	124.6
73.37	112.9
73.4	109.3
73.43	114.7
73.46	118.3
73.49	105.7
73.52	108.4
73.55	104.8
73.58	115.6
73.61	119.2
73.64	119.2
73.67	114.7
73.7	119.2
73.73	106.6
73.76	108.4
73.79	109.3
73.82	120.1
73.85	117.4
73.88	117.4
73.91	126.4
73.94	108.4
73.97	114.7
74	110.2
74.03	111.1
74.06	118.3
74.09	115.6
74.12	113.8
74.15	120.1
74.18	123.7
74.21	111.1
74.24	112.9
74.27	114.7
74.3	113.8
74.33	111.1
74.36	112.9
74.39	110.2
74.42	112.9
74.45	118.3
74.48	123.7
74.51	109.3
74.54	117.4
74.57	121.9
74.6	112.9
74.63	112.9
74.66	112.9
74.69	115.6
74.72	119.2
74.75	113.8
74.78	113.8
74.81	119.2
74.84	108.4
74.87	120.1
74.9	111.1
74.93	110.2
74.96	109.3
74.99	114.7
75.02	122.8
75.05	113.8
75.08	113.8
75.11	114.7
75.14	112.9
75.17	114.7
75.2	115.6
75.23	124.6
75.26	118.3
75.29	112.9
75.32	118.3
75.35	114.7
75.38	123.7
75.41	123.7
75.44	113.8
75.47	112.9
75.5	119.2
75.53	128.2
75.56	129.1
75.59	120.1
75.62	118.3
75.65	130.9
75.68	124.6
75.71	118.3
75.74	120.1
75.77	132.7
75.8	117.4
75.83	128.2
75.86	136.3
75.89	136.3
75.92	133.6
75.95	135.4
75.98	138.1
76.01	144.4
76.04	138.1
76.07	159.7
76.1	165.1
76.13	191.2
76.16	194.8
76.19	196.6
76.22	214.6
76.25	264.1
76.28	324.4
76.31	473.8
76.34	787.9
76.37	1069.6
76.4	961.603
76.43	578.2
76.46	400.9
76.49	366.7
76.52	378.4
76.55	453.1
76.58	581.8
76.61	651.1
76.64	450.4
76.67	292.9
76.7	232.6
76.73	195.7
76.76	176.8
76.79	153.4
76.82	158.8
76.85	140.8
76.88	133.6
76.91	140.8
76.94	131.8
76.97	130.9
77	128.2
77.03	113.8
77.06	128.2
77.09	121.9
77.12	124.6
77.15	127.3
77.18	115.6
77.21	115.6
77.24	126.4
77.27	111.1
77.3	120.1
77.33	124.6
77.36	122.8
77.39	118.3
77.42	118.3
77.45	128.2
77.48	131.8
77.51	108.4
77.54	124.6
77.57	118.3
77.6	118.3
77.63	118.3
77.66	120.1
77.69	120.1
77.72	123.7
77.75	123.7
77.78	115.6
77.81	118.3
77.84	118.3
77.87	122.8
77.9	110.2
77.93	114.7
77.96	119.2
77.99	117.4
78.02	115.6
78.05	111.1
78.08	119.2
78.11	115.6
78.14	120.1
78.17	120.1
78.2	114.7
78.23	111.1
78.26	114.7
78.29	111.1
78.32	123.7
78.35	110.2
78.38	120.1
78.41	114.7
78.44	112.9
78.47	112.9
78.5	119.2
78.53	124.6
78.56	117.4
78.59	118.3
78.62	121.9
78.65	114.7
78.68	114.7
78.71	110.2
78.74	112.9
78.77	123.7
78.8	113.8
78.83	121.9
78.86	118.3
78.89	117.4
78.92	112.9
78.95	122.8
78.98	114.7
79.01	115.6
79.04	115.6
79.07	112.9
79.1	114.7
79.13	117.4
79.16	109.3
79.19	113.8
79.22	111.1
79.25	109.3
79.28	115.6
79.31	110.2
79.34	110.2
79.37	115.6
79.4	112.9
79.43	112.9
79.46	119.2
79.49	113.8
79.52	122.8
79.55	115.6
79.58	111.1
79.61	110.2
79.64	120.1
79.67	111.1
79.7	115.6
79.73	114.7
79.76	117.4
79.79	112.9
79.82	105.7
79.85	113.8
79.88	115.6
79.91	114.7
79.94	109.3
79.97	117.4
